##TITLE=No Description
##DATA TYPE=INFRARED SPECTRUM
##XUNITS=1/CM
##YUNITS=%T
400.452181  	34.338367 
401.887493  	29.069643 
403.322806  	23.621064 
404.758118  	28.082464 
406.193431  	35.302754 
407.628743  	37.113765 
409.064056  	36.200292 
410.499368  	35.686649 
411.934681  	32.490342 
413.369993  	28.703714 
414.805306  	28.985855 
416.240618  	31.163793 
417.675931  	37.396796 
419.111243  	46.171886 
420.546556  	40.844532 
421.981868  	38.998487 
423.417180  	41.014518 
424.852493  	42.365466 
426.287805  	41.681380 
427.723118  	38.847466 
429.158430  	36.073367 
430.593743  	34.064326 
432.029055  	32.993960 
433.464368  	34.419433 
434.899680  	35.770294 
436.334993  	35.296107 
437.770305  	34.172231 
439.205618  	32.311225 
440.640930  	33.979303 
442.076243  	38.246352 
443.511555  	38.088105 
444.946868  	36.451603 
446.382180  	35.286715 
447.817493  	31.657281 
449.252805  	29.739251 
450.688118  	29.974971 
452.123430  	29.042307 
453.558742  	30.076387 
454.994055  	32.631042 
456.429367  	33.864182 
457.864680  	34.193493 
459.299992  	33.479181 
460.735305  	32.235072 
462.170617  	33.304662 
463.605930  	33.142194 
465.041242  	31.590544 
466.476555  	33.734614 
467.911867  	36.075747 
469.347180  	32.640005 
470.782492  	29.952444 
472.217805  	30.478366 
473.653117  	31.283693 
475.088430  	32.539488 
476.523742  	32.611923 
477.959055  	31.465646 
479.394367  	31.097299 
480.829680  	29.599328 
482.264992  	28.080863 
483.700304  	28.495789 
485.135617  	28.480351 
486.570929  	28.201522 
488.006242  	27.863232 
489.441554  	27.713022 
490.876867  	28.971893 
492.312179  	29.165026 
493.747492  	28.881372 
495.182804  	29.754504 
496.618117  	29.787899 
498.053429  	30.702214 
499.488742  	32.336243 
500.924054  	31.748093 
502.359367  	31.674292 
503.794679  	32.147250 
505.229992  	31.711522 
506.665304  	32.259899 
508.100617  	32.057012 
509.535929  	31.574948 
510.971242  	32.886915 
512.406554  	33.085174 
513.841866  	32.060259 
515.277179  	31.491996 
516.712491  	30.808253 
518.147804  	30.881839 
519.583116  	31.065885 
521.018429  	31.082622 
522.453741  	31.515605 
523.889054  	31.073106 
525.324366  	30.789244 
526.759679  	31.124784 
528.194991  	30.471471 
529.630304  	30.399558 
531.065616  	30.477285 
532.500929  	29.519773 
533.936241  	29.230762 
535.371554  	29.341962 
536.806866  	29.711192 
538.242179  	30.715867 
539.677491  	31.306548 
541.112804  	32.702190 
542.548116  	34.666976 
543.983428  	35.155766 
545.418741  	35.545811 
546.854053  	36.161436 
548.289366  	36.347332 
549.724678  	37.276504 
551.159991  	38.069449 
552.595303  	38.255008 
554.030616  	38.463993 
555.465928  	38.433402 
556.901241  	38.780753 
558.336553  	38.924404 
559.771866  	38.391248 
561.207178  	38.728976 
562.642491  	39.049827 
564.077803  	38.958662 
565.513116  	39.960085 
566.948428  	40.388819 
568.383741  	39.336644 
569.819053  	39.122496 
571.254366  	39.783638 
572.689678  	39.838977 
574.124990  	39.650820 
575.560303  	40.126503 
576.995615  	40.804627 
578.430928  	40.729303 
579.866240  	40.521362 
581.301553  	40.787211 
582.736865  	41.062816 
584.172178  	41.391085 
585.607490  	41.967637 
587.042803  	42.452083 
588.478115  	42.748311 
589.913428  	43.002358 
591.348740  	43.272213 
592.784053  	43.178333 
594.219365  	42.767300 
595.654678  	42.808530 
597.089990  	42.994539 
598.525303  	42.743958 
599.960615  	42.782567 
601.395928  	43.049790 
602.831240  	42.557649 
604.266552  	41.887095 
605.701865  	41.899831 
607.137177  	41.799100 
608.572490  	41.198749 
610.007802  	40.888910 
611.443115  	40.944223 
612.878427  	41.180087 
614.313740  	41.647184 
615.749052  	42.117193 
617.184365  	42.955901 
618.619677  	44.115633 
620.054990  	44.871683 
621.490302  	45.544289 
622.925615  	46.276697 
624.360927  	46.832729 
625.796240  	47.290994 
627.231552  	47.480317 
628.666865  	47.570307 
630.102177  	47.788752 
631.537490  	47.898016 
632.972802  	48.024755 
634.408114  	48.083238 
635.843427  	48.094446 
637.278739  	48.535434 
638.714052  	48.848844 
640.149364  	48.835185 
641.584677  	49.000619 
643.019989  	48.886277 
644.455302  	48.630207 
645.890614  	48.686357 
647.325927  	48.639876 
648.761239  	48.784289 
650.196552  	49.111014 
651.631864  	49.237853 
653.067177  	49.573290 
654.502489  	49.659861 
655.937802  	49.347238 
657.373114  	49.443599 
658.808427  	49.640874 
660.243739  	49.716541 
661.679051  	49.925121 
663.114364  	50.161745 
664.549676  	50.451222 
665.984989  	50.638016 
667.420301  	51.059163 
668.855614  	52.205307 
670.290926  	51.485980 
671.726239  	51.236445 
673.161551  	51.767523 
674.596864  	52.221337 
676.032176  	52.415579 
677.467489  	52.629583 
678.902801  	52.641683 
680.338114  	52.681328 
681.773426  	52.788813 
683.208739  	52.901611 
684.644051  	53.045462 
686.079364  	53.080842 
687.514676  	53.198871 
688.949989  	53.342165 
690.385301  	53.337413 
691.820613  	53.337696 
693.255926  	53.259078 
694.691238  	53.353594 
696.126551  	53.721669 
697.561863  	53.833925 
698.997176  	53.766465 
700.432488  	53.733962 
701.867801  	53.694730 
703.303113  	53.792414 
704.738426  	53.928769 
706.173738  	54.201269 
707.609051  	54.765799 
709.044363  	55.398105 
710.479676  	56.103240 
711.914988  	56.639409 
713.350301  	56.990595 
714.785613  	57.655585 
716.220926  	58.053532 
717.656238  	57.961731 
719.091551  	58.052086 
720.526863  	58.087822 
721.962175  	58.162796 
723.397488  	58.659012 
724.832800  	59.433754 
726.268113  	60.613373 
727.703425  	61.662001 
729.138738  	62.186838 
730.574050  	62.830570 
732.009363  	63.585930 
733.444675  	64.544199 
734.879988  	66.001712 
736.315300  	67.343436 
737.750613  	68.550854 
739.185925  	69.591095 
740.621238  	69.858958 
742.056550  	69.704619 
743.491863  	69.229811 
744.927175  	68.322846 
746.362488  	67.489790 
747.797800  	66.647489 
749.233113  	65.760500 
750.668425  	65.181719 
752.103737  	64.876588 
753.539050  	64.779007 
754.974362  	64.728510 
756.409675  	64.812328 
757.844987  	65.310901 
759.280300  	65.794094 
760.715612  	65.839734 
762.150925  	65.268735 
763.586237  	64.101075 
765.021550  	63.214656 
766.456862  	63.227905 
767.892175  	64.014088 
769.327487  	65.202391 
770.762800  	65.919120 
772.198112  	65.790483 
773.633425  	65.277396 
775.068737  	64.700188 
776.504050  	64.222481 
777.939362  	63.859966 
779.374675  	63.673033 
780.809987  	63.755124 
782.245299  	63.852538 
783.680612  	63.974793 
785.115924  	64.140755 
786.551237  	64.049071 
787.986549  	63.873377 
789.421862  	63.778720 
790.857174  	63.811342 
792.292487  	64.179238 
793.727799  	64.552902 
795.163112  	64.729945 
796.598424  	64.900372 
798.033737  	65.042130 
799.469049  	65.410578 
800.904362  	66.023844 
802.339674  	66.687883 
803.774987  	67.758527 
805.210299  	69.001624 
806.645612  	69.666403 
808.080924  	69.375041 
809.516237  	68.055377 
810.951549  	66.548702 
812.386861  	65.715757 
813.822174  	65.478560 
815.257486  	65.674198 
816.692799  	66.082033 
818.128111  	66.466209 
819.563424  	66.999537 
820.998736  	67.716756 
822.434049  	68.523303 
823.869361  	69.299838 
825.304674  	70.001862 
826.739986  	70.846546 
828.175299  	71.661835 
829.610611  	72.479877 
831.045924  	73.732822 
832.481236  	74.668668 
833.916549  	74.098638 
835.351861  	72.210439 
836.787174  	70.188766 
838.222486  	68.875821 
839.657799  	68.123793 
841.093111  	67.636136 
842.528423  	67.431849 
843.963736  	67.323600 
845.399048  	67.365123 
846.834361  	67.650914 
848.269673  	67.871477 
849.704986  	68.043880 
851.140298  	68.166228 
852.575611  	68.097037 
854.010923  	68.082458 
855.446236  	68.157714 
856.881548  	68.281453 
858.316861  	68.515993 
859.752173  	68.630094 
861.187486  	68.617061 
862.622798  	68.626028 
864.058111  	68.690385 
865.493423  	68.907588 
866.928736  	69.172092 
868.364048  	69.451266 
869.799361  	69.762027 
871.234673  	69.903325 
872.669985  	69.971674 
874.105298  	70.007760 
875.540610  	69.958444 
876.975923  	70.049641 
878.411235  	70.129110 
879.846548  	70.112276 
881.281860  	70.235410 
882.717173  	70.303304 
884.152485  	70.307268 
885.587798  	70.423758 
887.023110  	70.546514 
888.458423  	70.802242 
889.893735  	71.168545 
891.329048  	71.443101 
892.764360  	71.730000 
894.199673  	72.052626 
895.634985  	72.436525 
897.070298  	72.860538 
898.505610  	73.227363 
899.940923  	73.757069 
901.376235  	74.424848 
902.811547  	75.041772 
904.246860  	75.653831 
905.682172  	76.121216 
907.117485  	76.518135 
908.552797  	76.977993 
909.988110  	77.333673 
911.423422  	77.742521 
912.858735  	78.183756 
914.294047  	78.368678 
915.729360  	78.448366 
917.164672  	78.488344 
918.599985  	78.451693 
920.035297  	78.481946 
921.470610  	78.682489 
922.905922  	79.149446 
924.341235  	79.526520 
925.776547  	79.176857 
927.211860  	78.010754 
928.647172  	76.412908 
930.082485  	75.003461 
931.517797  	74.091854 
932.953109  	73.509134 
934.388422  	73.268574 
935.823734  	73.365962 
937.259047  	73.635030 
938.694359  	74.061063 
940.129672  	74.448388 
941.564984  	74.721072 
943.000297  	74.986037 
944.435609  	75.128541 
945.870922  	75.270361 
947.306234  	75.424630 
948.741547  	75.364988 
950.176859  	75.241681 
951.612172  	75.017143 
953.047484  	74.604994 
954.482797  	74.225104 
955.918109  	73.758199 
957.353422  	73.198677 
958.788734  	72.857730 
960.224047  	72.801280 
961.659359  	72.938510 
963.094671  	72.947915 
964.529984  	72.708048 
965.965296  	72.465685 
967.400609  	72.133477 
968.835921  	71.758922 
970.271234  	71.516478 
971.706546  	71.223318 
973.141859  	70.986635 
974.577171  	70.895681 
976.012484  	70.788274 
977.447796  	70.765325 
978.883109  	70.731249 
980.318421  	70.606518 
981.753734  	70.537417 
983.189046  	70.377999 
984.624359  	70.146497 
986.059671  	69.961795 
987.494984  	69.803187 
988.930296  	69.813211 
990.365609  	69.891155 
991.800921  	69.991608 
993.236233  	70.271619 
994.671546  	70.520245 
996.106858  	70.785639 
997.542171  	71.228398 
998.977483  	71.627307 
1000.412796  	71.870203 
1001.848108  	71.644272 
1003.283421  	70.846750 
1004.718733  	69.939867 
1006.154046  	69.038028 
1007.589358  	68.166147 
1009.024671  	67.359181 
1010.459983  	66.522235 
1011.895296  	65.894979 
1013.330608  	65.387140 
1014.765921  	64.807816 
1016.201233  	64.398269 
1017.636546  	63.949220 
1019.071858  	63.425844 
1020.507171  	62.994046 
1021.942483  	62.360158 
1023.377795  	61.831787 
1024.813108  	61.498478 
1026.248420  	61.008430 
1027.683733  	60.719711 
1029.119045  	60.451002 
1030.554358  	60.636151 
1031.989670  	62.436591 
1033.424983  	63.430747 
1034.860295  	61.203443 
1036.295608  	58.926179 
1037.730920  	58.204406 
1039.166233  	57.924706 
1040.601545  	57.665564 
1042.036858  	57.454747 
1043.472170  	57.254107 
1044.907483  	57.082133 
1046.342795  	56.828628 
1047.778108  	56.593895 
1049.213420  	56.439272 
1050.648733  	56.277617 
1052.084045  	56.135756 
1053.519357  	56.031639 
1054.954670  	55.975417 
1056.389982  	55.935905 
1057.825295  	55.994323 
1059.260607  	56.240013 
1060.695920  	56.533805 
1062.131232  	56.930214 
1063.566545  	57.383834 
1065.001857  	57.596987 
1066.437170  	57.542538 
1067.872482  	57.180925 
1069.307795  	56.576394 
1070.743107  	56.035719 
1072.178420  	55.613912 
1073.613732  	55.368153 
1075.049045  	55.337420 
1076.484357  	55.411086 
1077.919670  	55.677256 
1079.354982  	56.004442 
1080.790295  	56.191004 
1082.225607  	56.292341 
1083.660919  	56.308554 
1085.096232  	56.449530 
1086.531544  	56.835798 
1087.966857  	57.299533 
1089.402169  	57.889066 
1090.837482  	58.524595 
1092.272794  	59.165336 
1093.708107  	59.960075 
1095.143419  	60.814681 
1096.578732  	61.835206 
1098.014044  	63.099981 
1099.449357  	64.424194 
1100.884669  	65.745102 
1102.319982  	66.694861 
1103.755294  	67.006059 
1105.190607  	66.793564 
1106.625919  	66.220825 
1108.061232  	65.817841 
1109.496544  	65.867446 
1110.931857  	66.137339 
1112.367169  	66.638121 
1113.802481  	67.156276 
1115.237794  	67.356447 
1116.673106  	67.448267 
1118.108419  	67.643531 
1119.543731  	68.016689 
1120.979044  	68.485667 
1122.414356  	68.844385 
1123.849669  	69.216590 
1125.284981  	69.639451 
1126.720294  	70.034383 
1128.155606  	70.458828 
1129.590919  	70.832256 
1131.026231  	71.247772 
1132.461544  	71.742914 
1133.896856  	72.095655 
1135.332169  	72.369849 
1136.767481  	72.523383 
1138.202794  	72.486401 
1139.638106  	72.586069 
1141.073419  	72.915452 
1142.508731  	73.377571 
1143.944043  	73.984811 
1145.379356  	74.654241 
1146.814668  	75.293746 
1148.249981  	75.649669 
1149.685293  	75.525198 
1151.120606  	75.100143 
1152.555918  	74.615059 
1153.991231  	74.292450 
1155.426543  	74.233376 
1156.861856  	74.358977 
1158.297168  	74.627338 
1159.732481  	74.932854 
1161.167793  	75.295296 
1162.603106  	75.839173 
1164.038418  	76.452959 
1165.473731  	77.219810 
1166.909043  	78.203549 
1168.344356  	79.107364 
1169.779668  	79.798699 
1171.214981  	80.175013 
1172.650293  	80.330273 
1174.085605  	80.602649 
1175.520918  	80.993873 
1176.956230  	81.513712 
1178.391543  	82.176216 
1179.826855  	82.801457 
1181.262168  	83.390476 
1182.697480  	83.738238 
1184.132793  	83.699813 
1185.568105  	83.522195 
1187.003418  	83.220499 
1188.438730  	82.845440 
1189.874043  	82.473688 
1191.309355  	81.970663 
1192.744668  	81.435651 
1194.179980  	80.900242 
1195.615293  	80.287014 
1197.050605  	79.710651 
1198.485918  	79.089786 
1199.921230  	78.335281 
1201.356543  	77.461625 
1202.791855  	76.379811 
1204.227167  	75.238513 
1205.662480  	74.175960 
1207.097792  	73.148699 
1208.533105  	72.319918 
1209.968417  	71.752214 
1211.403730  	71.360215 
1212.839042  	71.188750 
1214.274355  	71.121796 
1215.709667  	71.110098 
1217.144980  	71.218562 
1218.580292  	71.364226 
1220.015605  	71.625826 
1221.450917  	71.951763 
1222.886230  	72.185923 
1224.321542  	72.500337 
1225.756855  	72.910192 
1227.192167  	73.386911 
1228.627480  	73.998503 
1230.062792  	74.579155 
1231.498105  	75.139210 
1232.933417  	75.705284 
1234.368729  	76.215696 
1235.804042  	76.850034 
1237.239354  	77.572798 
1238.674667  	78.318033 
1240.109979  	79.141062 
1241.545292  	79.868913 
1242.980604  	80.529615 
1244.415917  	81.161996 
1245.851229  	81.686553 
1247.286542  	82.244674 
1248.721854  	82.857731 
1250.157167  	83.593390 
1251.592479  	84.510964 
1253.027792  	85.396628 
1254.463104  	86.280384 
1255.898417  	87.124059 
1257.333729  	87.756013 
1258.769042  	88.296202 
1260.204354  	88.764253 
1261.639667  	89.199186 
1263.074979  	89.547389 
1264.510291  	89.648769 
1265.945604  	89.691428 
1267.380916  	89.589619 
1268.816229  	89.203449 
1270.251541  	88.736705 
1271.686854  	88.091022 
1273.122166  	87.287421 
1274.557479  	86.446081 
1275.992791  	85.444194 
1277.428104  	84.453549 
1278.863416  	83.537832 
1280.298729  	82.588856 
1281.734041  	81.799528 
1283.169354  	81.141630 
1284.604666  	80.503405 
1286.039979  	79.939092 
1287.475291  	79.342377 
1288.910604  	78.817141 
1290.345916  	78.458385 
1291.781229  	78.092378 
1293.216541  	77.768828 
1294.651853  	77.436336 
1296.087166  	77.057953 
1297.522478  	76.849306 
1298.957791  	76.695176 
1300.393103  	76.568746 
1301.828416  	76.567647 
1303.263728  	76.457976 
1304.699041  	76.305016 
1306.134353  	76.215697 
1307.569666  	76.110733 
1309.004978  	76.163055 
1310.440291  	76.284183 
1311.875603  	76.398528 
1313.310916  	76.676368 
1314.746228  	76.904245 
1316.181541  	77.004954 
1317.616853  	76.993600 
1319.052166  	76.793991 
1320.487478  	76.641901 
1321.922791  	76.501415 
1323.358103  	76.381315 
1324.793415  	76.555669 
1326.228728  	76.870930 
1327.664040  	77.330177 
1329.099353  	77.968690 
1330.534665  	78.531488 
1331.969978  	79.170218 
1333.405290  	79.805564 
1334.840603  	80.555001 
1336.275915  	81.920167 
1337.711228  	83.509673 
1339.146540  	85.459234 
1340.581853  	87.860317 
1342.017165  	89.226475 
1343.452478  	89.707830 
1344.887790  	89.624091 
1346.323103  	89.018442 
1347.758415  	88.138029 
1349.193728  	87.033703 
1350.629040  	86.029555 
1352.064353  	85.105111 
1353.499665  	84.125692 
1354.934977  	83.230430 
1356.370290  	82.239350 
1357.805602  	81.173172 
1359.240915  	80.139771 
1360.676227  	78.970530 
1362.111540  	77.746464 
1363.546852  	76.700313 
1364.982165  	75.817459 
1366.417477  	74.955509 
1367.852790  	74.140570 
1369.288102  	73.559892 
1370.723415  	73.171821 
1372.158727  	72.740018 
1373.594040  	72.337396 
1375.029352  	72.083636 
1376.464665  	71.681773 
1377.899977  	71.219718 
1379.335290  	70.910226 
1380.770602  	70.564141 
1382.205915  	70.188010 
1383.641227  	69.927655 
1385.076539  	69.646925 
1386.511852  	69.502271 
1387.947164  	69.627790 
1389.382477  	69.493080 
1390.817789  	69.026544 
1392.253102  	68.394471 
1393.688414  	67.895806 
1395.123727  	67.728800 
1396.559039  	67.462933 
1397.994352  	67.156927 
1399.429664  	66.978635 
1400.864977  	66.441857 
1402.300289  	65.753598 
1403.735602  	65.236243 
1405.170914  	65.001985 
1406.606227  	64.980753 
1408.041539  	64.962211 
1409.476852  	64.998010 
1410.912164  	65.153998 
1412.347477  	65.271164 
1413.782789  	65.316358 
1415.218101  	65.234498 
1416.653414  	65.058460 
1418.088726  	65.210310 
1419.524039  	65.960078 
1420.959351  	66.494213 
1422.394664  	66.858092 
1423.829976  	67.806255 
1425.265289  	69.210824 
1426.700601  	70.024768 
1428.135914  	70.609436 
1429.571226  	70.997698 
1431.006539  	71.058695 
1432.441851  	70.894449 
1433.877164  	70.428695 
1435.312476  	70.000228 
1436.747789  	69.918089 
1438.183101  	69.753235 
1439.618414  	69.383054 
1441.053726  	69.119936 
1442.489039  	68.964728 
1443.924351  	68.807414 
1445.359663  	68.680681 
1446.794976  	68.636820 
1448.230288  	68.882216 
1449.665601  	69.190567 
1451.100913  	69.357334 
1452.536226  	69.768347 
1453.971538  	69.990926 
1455.406851  	69.856456 
1456.842163  	70.368385 
1458.277476  	70.925540 
1459.712788  	70.836593 
1461.148101  	71.049702 
1462.583413  	71.267643 
1464.018726  	71.851502 
1465.454038  	72.957899 
1466.889351  	73.497581 
1468.324663  	74.379915 
1469.759976  	75.669025 
1471.195288  	76.892012 
1472.630601  	79.244281 
1474.065913  	80.889945 
1475.501225  	81.267434 
1476.936538  	81.992610 
1478.371850  	82.088676 
1479.807163  	81.439875 
1481.242475  	80.403432 
1482.677788  	79.069074 
1484.113100  	77.575129 
1485.548413  	76.196289 
1486.983725  	75.210934 
1488.419038  	74.124118 
1489.854350  	73.070203 
1491.289663  	71.998028 
1492.724975  	70.615127 
1494.160288  	69.512492 
1495.595600  	68.542055 
1497.030913  	67.556314 
1498.466225  	66.797928 
1499.901538  	65.896531 
1501.336850  	65.067937 
1502.772163  	64.426540 
1504.207475  	63.788026 
1505.642787  	63.464751 
1507.078100  	63.159337 
1508.513412  	61.938443 
1509.948725  	61.257789 
1511.384037  	60.750419 
1512.819350  	60.423515 
1514.254662  	59.961209 
1515.689975  	59.478787 
1517.125287  	60.074943 
1518.560600  	60.281065 
1519.995912  	59.885428 
1521.431225  	60.818952 
