##TITLE=No Description
##DATA TYPE=INFRARED SPECTRUM
##XUNITS=1/CM
##YUNITS=%T
400.452181  	70.329528 
401.887493  	57.682761 
403.322806  	60.053707 
404.758118  	61.280871 
406.193431  	64.198626 
407.628743  	74.847991 
409.064056  	79.679666 
410.499368  	85.920534 
411.934681  	90.621289 
413.369993  	82.154303 
414.805306  	72.198126 
416.240618  	73.789371 
417.675931  	88.404600 
419.111243  	108.430527 
420.546556  	87.985022 
421.981868  	76.593367 
423.417180  	70.278141 
424.852493  	67.878428 
426.287805  	72.388059 
427.723118  	72.854496 
429.158430  	70.512810 
430.593743  	71.158081 
432.029055  	72.252091 
433.464368  	75.436413 
434.899680  	77.318944 
436.334993  	74.505436 
437.770305  	75.073498 
439.205618  	74.886537 
440.640930  	70.801302 
442.076243  	69.198236 
443.511555  	69.011552 
444.946868  	71.126122 
446.382180  	76.892204 
447.817493  	78.033495 
449.252805  	75.839788 
450.688118  	74.948892 
452.123430  	75.213722 
453.558742  	76.544769 
454.994055  	75.769987 
456.429367  	74.272391 
457.864680  	76.991475 
459.299992  	80.770243 
460.735305  	79.804902 
462.170617  	74.708723 
463.605930  	70.784064 
465.041242  	71.919315 
466.476555  	73.936837 
467.911867  	76.611141 
469.347180  	77.913715 
470.782492  	75.169565 
472.217805  	74.354226 
473.653117  	76.593242 
475.088430  	75.181520 
476.523742  	72.429005 
477.959055  	71.645258 
479.394367  	72.376252 
480.829680  	72.869650 
482.264992  	72.930752 
483.700304  	74.898064 
485.135617  	75.915725 
486.570929  	73.791920 
488.006242  	72.465366 
489.441554  	72.340868 
490.876867  	72.288004 
492.312179  	73.308266 
493.747492  	74.450639 
495.182804  	73.734318 
496.618117  	71.367282 
498.053429  	70.719973 
499.488742  	72.292971 
500.924054  	71.926727 
502.359367  	71.245323 
503.794679  	73.298089 
505.229992  	73.739183 
506.665304  	73.114139 
508.100617  	74.375371 
509.535929  	75.831331 
510.971242  	76.537336 
512.406554  	75.425272 
513.841866  	72.638986 
515.277179  	71.279920 
516.712491  	71.050370 
518.147804  	70.724160 
519.583116  	71.565933 
521.018429  	72.426760 
522.453741  	72.652082 
523.889054  	73.073741 
525.324366  	73.053354 
526.759679  	73.075558 
528.194991  	73.607106 
529.630304  	73.343488 
531.065616  	73.320826 
532.500929  	74.098168 
533.936241  	73.309421 
535.371554  	71.601805 
536.806866  	71.142644 
538.242179  	71.412546 
539.677491  	72.655856 
541.112804  	74.433816 
542.548116  	74.828824 
543.983428  	75.035915 
545.418741  	75.691976 
546.854053  	75.714734 
548.289366  	75.831650 
549.724678  	75.483965 
551.159991  	75.115826 
552.595303  	76.146891 
554.030616  	76.197743 
555.465928  	75.563217 
556.901241  	76.577707 
558.336553  	76.686452 
559.771866  	75.649313 
561.207178  	75.785415 
562.642491  	76.250459 
564.077803  	76.833041 
565.513116  	76.899667 
566.948428  	76.014542 
568.383741  	76.290726 
569.819053  	76.682763 
571.254366  	75.929494 
572.689678  	76.113488 
574.124990  	76.388322 
575.560303  	75.758845 
576.995615  	75.795476 
578.430928  	76.067014 
579.866240  	76.280710 
581.301553  	77.006248 
582.736865  	77.495374 
584.172178  	77.653084 
585.607490  	77.638419 
587.042803  	77.768236 
588.478115  	78.441094 
589.913428  	78.562323 
591.348740  	77.943560 
592.784053  	77.707051 
594.219365  	77.705632 
595.654678  	77.792659 
597.089990  	77.944997 
598.525303  	77.667256 
599.960615  	77.388763 
601.395928  	77.370528 
602.831240  	77.379738 
604.266552  	77.808059 
605.701865  	78.310562 
607.137177  	78.267744 
608.572490  	78.274634 
610.007802  	78.409164 
611.443115  	78.171493 
612.878427  	77.896963 
614.313740  	77.774823 
615.749052  	77.721374 
617.184365  	78.003389 
618.619677  	78.371179 
620.054990  	78.718082 
621.490302  	79.163763 
622.925615  	78.996154 
624.360927  	78.493534 
625.796240  	78.725719 
627.231552  	79.197898 
628.666865  	79.222999 
630.102177  	79.048638 
631.537490  	79.042886 
632.972802  	79.315558 
634.408114  	79.189275 
635.843427  	78.798884 
637.278739  	79.120353 
638.714052  	79.351612 
640.149364  	79.036425 
641.584677  	79.202103 
643.019989  	79.611899 
644.455302  	79.816873 
645.890614  	79.983392 
647.325927  	79.960569 
648.761239  	79.989938 
650.196552  	80.002108 
651.631864  	79.733830 
653.067177  	79.657045 
654.502489  	79.669971 
655.937802  	79.654262 
657.373114  	79.835524 
658.808427  	79.863042 
660.243739  	79.849456 
661.679051  	80.017606 
663.114364  	80.218365 
664.549676  	80.503101 
665.984989  	80.548668 
667.420301  	80.007677 
668.855614  	79.660060 
670.290926  	80.252390 
671.726239  	80.401273 
673.161551  	80.272660 
674.596864  	80.116526 
676.032176  	80.316930 
677.467489  	80.354675 
678.902801  	80.061874 
680.338114  	80.201303 
681.773426  	80.559722 
683.208739  	80.691081 
684.644051  	80.727182 
686.079364  	80.692259 
687.514676  	80.828143 
688.949989  	80.970025 
690.385301  	80.843556 
691.820613  	80.860616 
693.255926  	80.919026 
694.691238  	80.758096 
696.126551  	80.657848 
697.561863  	80.742927 
698.997176  	81.033470 
700.432488  	81.356453 
701.867801  	81.419390 
703.303113  	81.383813 
704.738426  	81.478583 
706.173738  	81.751205 
707.609051  	81.950835 
709.044363  	81.855950 
710.479676  	81.915092 
711.914988  	82.236855 
713.350301  	82.442326 
714.785613  	82.618640 
716.220926  	82.723412 
717.656238  	82.628211 
719.091551  	82.548261 
720.526863  	82.586158 
721.962175  	82.838576 
723.397488  	83.171739 
724.832800  	83.288956 
726.268113  	83.274379 
727.703425  	83.332244 
729.138738  	83.553845 
730.574050  	83.766891 
732.009363  	83.711819 
733.444675  	83.678788 
734.879988  	83.772112 
736.315300  	83.813071 
737.750613  	84.022113 
739.185925  	84.258817 
740.621238  	84.289529 
742.056550  	84.321194 
743.491863  	84.343854 
744.927175  	84.451072 
746.362488  	84.636795 
747.797800  	84.592249 
749.233113  	84.626149 
750.668425  	84.890977 
752.103737  	84.969176 
753.539050  	84.951912 
754.974362  	85.058282 
756.409675  	85.112070 
757.844987  	84.958387 
759.280300  	84.696004 
760.715612  	84.515617 
762.150925  	84.369708 
763.586237  	84.235703 
765.021550  	84.147075 
766.456862  	84.029326 
767.892175  	84.068837 
769.327487  	84.247586 
770.762800  	84.283368 
772.198112  	84.274631 
773.633425  	84.169733 
775.068737  	83.953037 
776.504050  	83.911770 
777.939362  	83.896241 
779.374675  	83.885349 
780.809987  	84.047102 
782.245299  	84.131190 
783.680612  	84.175242 
785.115924  	84.274117 
786.551237  	84.287203 
787.986549  	84.361751 
789.421862  	84.480963 
790.857174  	84.571165 
792.292487  	84.692550 
793.727799  	84.707282 
795.163112  	84.750040 
796.598424  	84.888068 
798.033737  	84.898624 
799.469049  	84.940182 
800.904362  	85.050360 
802.339674  	85.075308 
803.774987  	85.075939 
805.210299  	85.019958 
806.645612  	84.987334 
808.080924  	85.036957 
809.516237  	85.072621 
810.951549  	85.199149 
812.386861  	85.311929 
813.822174  	85.319998 
815.257486  	85.414495 
816.692799  	85.472284 
818.128111  	85.472502 
819.563424  	85.584109 
820.998736  	85.647039 
822.434049  	85.598374 
823.869361  	85.565046 
825.304674  	85.615089 
826.739986  	85.667367 
828.175299  	85.601305 
829.610611  	85.606273 
831.045924  	85.695887 
832.481236  	85.711897 
833.916549  	85.811386 
835.351861  	85.838917 
836.787174  	85.669052 
838.222486  	85.600213 
839.657799  	85.503809 
841.093111  	85.298260 
842.528423  	85.203381 
843.963736  	85.101418 
845.399048  	84.935555 
846.834361  	84.757700 
848.269673  	84.604974 
849.704986  	84.577026 
851.140298  	84.486474 
852.575611  	84.314621 
854.010923  	84.269335 
855.446236  	84.246440 
856.881548  	84.247969 
858.316861  	84.280408 
859.752173  	84.212622 
861.187486  	84.190995 
862.622798  	84.253065 
864.058111  	84.313971 
865.493423  	84.366915 
866.928736  	84.334222 
868.364048  	84.347181 
869.799361  	84.436519 
871.234673  	84.456106 
872.669985  	84.540774 
874.105298  	84.645339 
875.540610  	84.635637 
876.975923  	84.621753 
878.411235  	84.601797 
879.846548  	84.629921 
881.281860  	84.680637 
882.717173  	84.656457 
884.152485  	84.790791 
885.587798  	85.011335 
887.023110  	85.061323 
888.458423  	85.114976 
889.893735  	85.224442 
891.329048  	85.304646 
892.764360  	85.380399 
894.199673  	85.457536 
895.634985  	85.550028 
897.070298  	85.534911 
898.505610  	85.474179 
899.940923  	85.547126 
901.376235  	85.556239 
902.811547  	85.511725 
904.246860  	85.548902 
905.682172  	85.534038 
907.117485  	85.565070 
908.552797  	85.652206 
909.988110  	85.705089 
911.423422  	85.881698 
912.858735  	86.062454 
914.294047  	86.181501 
915.729360  	86.358874 
917.164672  	86.442179 
918.599985  	86.522340 
920.035297  	86.659594 
921.470610  	86.613776 
922.905922  	86.483815 
924.341235  	86.361517 
925.776547  	86.238241 
927.211860  	86.203216 
928.647172  	86.112238 
930.082485  	85.968889 
931.517797  	85.911962 
932.953109  	85.853611 
934.388422  	85.833870 
935.823734  	85.903836 
937.259047  	86.023966 
938.694359  	86.183242 
940.129672  	86.244153 
941.564984  	86.249372 
943.000297  	86.311827 
944.435609  	86.353561 
945.870922  	86.415110 
947.306234  	86.461083 
948.741547  	86.422062 
950.176859  	86.368801 
951.612172  	86.247256 
953.047484  	86.145239 
954.482797  	86.110730 
955.918109  	85.953331 
957.353422  	85.805480 
958.788734  	85.751560 
960.224047  	85.630771 
961.659359  	85.486589 
963.094671  	85.311994 
964.529984  	85.149362 
965.965296  	85.076510 
967.400609  	84.934303 
968.835921  	84.813625 
970.271234  	84.791304 
971.706546  	84.637536 
973.141859  	84.409678 
974.577171  	84.224879 
976.012484  	84.062912 
977.447796  	83.971192 
978.883109  	83.869332 
980.318421  	83.721569 
981.753734  	83.571249 
983.189046  	83.390020 
984.624359  	83.231109 
986.059671  	83.056351 
987.494984  	82.850759 
988.930296  	82.752253 
990.365609  	82.695618 
991.800921  	82.600932 
993.236233  	82.504826 
994.671546  	82.399621 
996.106858  	82.339583 
997.542171  	82.293260 
998.977483  	82.221520 
1000.412796  	82.188235 
1001.848108  	82.108809 
1003.283421  	81.945753 
1004.718733  	81.699849 
1006.154046  	81.319437 
1007.589358  	80.971913 
1009.024671  	80.740338 
1010.459983  	80.539337 
1011.895296  	80.403002 
1013.330608  	80.286566 
1014.765921  	80.143439 
1016.201233  	80.032335 
1017.636546  	79.928408 
1019.071858  	79.774171 
1020.507171  	79.525102 
1021.942483  	79.311986 
1023.377795  	79.232922 
1024.813108  	79.051077 
1026.248420  	78.758421 
1027.683733  	78.572312 
1029.119045  	78.432973 
1030.554358  	78.044936 
1031.989670  	77.197712 
1033.424983  	76.660166 
1034.860295  	77.225199 
1036.295608  	77.830252 
1037.730920  	77.735727 
1039.166233  	77.593643 
1040.601545  	77.476811 
1042.036858  	77.222511 
1043.472170  	77.044511 
1044.907483  	76.825267 
1046.342795  	76.635849 
1047.778108  	76.534252 
1049.213420  	76.305738 
1050.648733  	76.122612 
1052.084045  	75.972631 
1053.519357  	75.734088 
1054.954670  	75.655478 
1056.389982  	75.661798 
1057.825295  	75.638302 
1059.260607  	75.660439 
1060.695920  	75.646970 
1062.131232  	75.696838 
1063.566545  	75.821906 
1065.001857  	75.908858 
1066.437170  	76.030255 
1067.872482  	76.116706 
1069.307795  	76.219925 
1070.743107  	76.415411 
1072.178420  	76.529821 
1073.613732  	76.635628 
1075.049045  	76.729485 
1076.484357  	76.748518 
1077.919670  	76.902592 
1079.354982  	77.082175 
1080.790295  	77.208049 
1082.225607  	77.457737 
1083.660919  	77.710084 
1085.096232  	77.926207 
1086.531544  	78.139322 
1087.966857  	78.310113 
1089.402169  	78.569319 
1090.837482  	78.829977 
1092.272794  	79.017779 
1093.708107  	79.297107 
1095.143419  	79.580726 
1096.578732  	79.747548 
1098.014044  	79.830614 
1099.449357  	79.909538 
1100.884669  	80.047356 
1102.319982  	80.156780 
1103.755294  	80.297084 
1105.190607  	80.520651 
1106.625919  	80.641913 
1108.061232  	80.725380 
1109.496544  	80.863706 
1110.931857  	80.998380 
1112.367169  	81.203496 
1113.802481  	81.401367 
1115.237794  	81.532559 
1116.673106  	81.716724 
1118.108419  	81.943062 
1119.543731  	82.226465 
1120.979044  	82.515613 
1122.414356  	82.723324 
1123.849669  	82.948840 
1125.284981  	83.121703 
1126.720294  	83.202173 
1128.155606  	83.335745 
1129.590919  	83.495355 
1131.026231  	83.670767 
1132.461544  	83.855533 
1133.896856  	84.003322 
1135.332169  	84.219932 
1136.767481  	84.485331 
1138.202794  	84.699258 
1139.638106  	84.833366 
1141.073419  	84.915564 
1142.508731  	85.106879 
1143.944043  	85.288701 
1145.379356  	85.293178 
1146.814668  	85.339621 
1148.249981  	85.438030 
1149.685293  	85.499727 
1151.120606  	85.595475 
1152.555918  	85.611352 
1153.991231  	85.597841 
1155.426543  	85.667309 
1156.861856  	85.714681 
1158.297168  	85.819516 
1159.732481  	86.002063 
1161.167793  	86.164196 
1162.603106  	86.371905 
1164.038418  	86.570211 
1165.473731  	86.749381 
1166.909043  	86.981844 
1168.344356  	87.207319 
1169.779668  	87.495490 
1171.214981  	87.817194 
1172.650293  	88.002336 
1174.085605  	88.094257 
1175.520918  	88.127836 
1176.956230  	88.126842 
1178.391543  	88.122990 
1179.826855  	88.049140 
1181.262168  	87.929181 
1182.697480  	87.767941 
1184.132793  	87.539750 
1185.568105  	87.298948 
1187.003418  	87.037431 
1188.438730  	86.797298 
1189.874043  	86.629620 
1191.309355  	86.461370 
1192.744668  	86.297741 
1194.179980  	86.156440 
1195.615293  	86.009663 
1197.050605  	85.870433 
1198.485918  	85.710869 
1199.921230  	85.547779 
1201.356543  	85.364138 
1202.791855  	85.092942 
1204.227167  	84.853117 
1205.662480  	84.692262 
1207.097792  	84.546045 
1208.533105  	84.464953 
1209.968417  	84.385526 
1211.403730  	84.262605 
1212.839042  	84.190546 
1214.274355  	84.150722 
1215.709667  	84.148109 
1217.144980  	84.148977 
1218.580292  	84.076754 
1220.015605  	84.034226 
1221.450917  	83.968298 
1222.886230  	83.811241 
1224.321542  	83.724199 
1225.756855  	83.691713 
1227.192167  	83.684970 
1228.627480  	83.738703 
1230.062792  	83.743626 
1231.498105  	83.763365 
1232.933417  	83.829689 
1234.368729  	83.832148 
1235.804042  	83.871619 
1237.239354  	83.944619 
1238.674667  	83.974759 
1240.109979  	84.055595 
1241.545292  	84.151642 
1242.980604  	84.232382 
1244.415917  	84.356706 
1245.851229  	84.512611 
1247.286542  	84.699833 
1248.721854  	84.864409 
1250.157167  	85.029095 
1251.592479  	85.264616 
1253.027792  	85.470720 
1254.463104  	85.669152 
1255.898417  	85.889257 
1257.333729  	86.026711 
1258.769042  	86.157603 
1260.204354  	86.330569 
1261.639667  	86.520573 
1263.074979  	86.730967 
1264.510291  	86.854835 
1265.945604  	86.949143 
1267.380916  	87.108934 
1268.816229  	87.223988 
1270.251541  	87.320781 
1271.686854  	87.466742 
1273.122166  	87.632190 
1274.557479  	87.810080 
1275.992791  	87.951077 
1277.428104  	88.059709 
1278.863416  	88.140633 
1280.298729  	88.192810 
1281.734041  	88.289060 
1283.169354  	88.331942 
1284.604666  	88.244926 
1286.039979  	88.096422 
1287.475291  	87.886699 
1288.910604  	87.725489 
1290.345916  	87.645923 
1291.781229  	87.533789 
1293.216541  	87.467428 
1294.651853  	87.407226 
1296.087166  	87.297324 
1297.522478  	87.308435 
1298.957791  	87.377343 
1300.393103  	87.423552 
1301.828416  	87.486926 
1303.263728  	87.479665 
1304.699041  	87.464586 
1306.134353  	87.431146 
1307.569666  	87.302843 
1309.004978  	87.253727 
1310.440291  	87.173971 
1311.875603  	86.912024 
1313.310916  	86.755627 
1314.746228  	86.791775 
1316.181541  	86.808425 
1317.616853  	86.722874 
1319.052166  	86.649305 
1320.487478  	86.826058 
1321.922791  	87.062362 
1323.358103  	87.137756 
1324.793415  	87.213064 
1326.228728  	87.260341 
1327.664040  	87.240377 
1329.099353  	87.233687 
1330.534665  	87.172631 
1331.969978  	87.155021 
1333.405290  	87.184948 
1334.840603  	87.081051 
1336.275915  	86.892654 
1337.711228  	86.533050 
1339.146540  	86.123671 
1340.581853  	86.493642 
1342.017165  	87.297034 
1343.452478  	87.695698 
1344.887790  	87.795197 
1346.323103  	87.890290 
1347.758415  	87.971992 
1349.193728  	87.959399 
1350.629040  	87.988602 
1352.064353  	88.007591 
1353.499665  	87.822184 
1354.934977  	87.628121 
1356.370290  	87.549228 
1357.805602  	87.411431 
1359.240915  	87.178684 
1360.676227  	86.668489 
1362.111540  	85.865202 
1363.546852  	85.686084 
1364.982165  	86.119444 
1366.417477  	86.131505 
1367.852790  	85.721563 
1369.288102  	85.471973 
1370.723415  	85.529931 
1372.158727  	85.282451 
1373.594040  	84.550555 
1375.029352  	84.385933 
1376.464665  	84.819646 
1377.899977  	84.841829 
1379.335290  	84.738753 
1380.770602  	84.764144 
1382.205915  	84.716466 
1383.641227  	84.698966 
1385.076539  	84.415728 
1386.511852  	83.747523 
1387.947164  	83.718953 
1389.382477  	84.273766 
1390.817789  	84.492466 
1392.253102  	84.354089 
1393.688414  	83.819730 
1395.123727  	83.345241 
1396.559039  	83.561726 
1397.994352  	83.545200 
1399.429664  	83.520999 
1400.864977  	84.182531 
1402.300289  	84.467193 
1403.735602  	84.101694 
1405.170914  	83.938139 
1406.606227  	84.390865 
1408.041539  	84.760667 
1409.476852  	84.804365 
1410.912164  	84.707503 
1412.347477  	84.800677 
1413.782789  	84.959789 
1415.218101  	84.787481 
1416.653414  	84.270622 
1418.088726  	83.544784 
1419.524039  	83.712466 
1420.959351  	85.015904 
1422.394664  	85.332958 
1423.829976  	85.077916 
1425.265289  	85.654928 
1426.700601  	86.296552 
1428.135914  	86.183983 
1429.571226  	85.884879 
1431.006539  	85.964843 
1432.441851  	86.127096 
1433.877164  	85.970349 
1435.312476  	85.253473 
1436.747789  	84.527502 
1438.183101  	85.149693 
1439.618414  	85.588731 
1441.053726  	85.592929 
1442.489039  	85.540103 
1443.924351  	85.560470 
1445.359663  	85.476643 
1446.794976  	85.095621 
1448.230288  	84.905350 
1449.665601  	85.237878 
1451.100913  	85.279936 
1452.536226  	85.035645 
1453.971538  	84.727415 
1455.406851  	83.859143 
1456.842163  	82.254570 
1458.277476  	82.852765 
1459.712788  	84.375781 
1461.148101  	85.496820 
1462.583413  	85.687942 
1464.018726  	85.034660 
1465.454038  	84.911414 
1466.889351  	85.503171 
1468.324663  	85.844471 
1469.759976  	85.828510 
1471.195288  	85.048801 
1472.630601  	84.033616 
1474.065913  	84.829005 
1475.501225  	85.380396 
1476.936538  	85.738401 
1478.371850  	86.395308 
1479.807163  	86.452279 
1481.242475  	86.078734 
1482.677788  	86.111536 
1484.113100  	86.084539 
1485.548413  	85.507746 
1486.983725  	84.681632 
1488.419038  	83.700213 
1489.854350  	82.848564 
1491.289663  	83.517731 
1492.724975  	84.297603 
1494.160288  	84.046210 
1495.595600  	83.073673 
1497.030913  	82.399884 
1498.466225  	82.463522 
1499.901538  	82.563844 
1501.336850  	82.675994 
1502.772163  	82.506310 
1504.207475  	81.761506 
1505.642787  	79.965136 
1507.078100  	77.152158 
1508.513412  	78.684493 
1509.948725  	79.949980 
1511.384037  	80.387777 
1512.819350  	80.698228 
1514.254662  	80.412116 
1515.689975  	79.348684 
1517.125287  	78.871305 
1518.560600  	79.447046 
1519.995912  	78.781731 
1521.431225  	77.370080 
